{
  "id": "12905-003-XX",
  "reaction": {
    "x4code": "(94-PU-239(N,F),,SIG)",
    "target": "94-PU-239",
    "process": "N,F",
    "sf4": null,
    "residual": null,
    "sf5": null,
    "sf6": "SIG",
    "sf7": null,
    "sf8": null,
    "sf9": null,
    "freetext": []
  },
  "measurement_conditions": {
    "MONITOR": {
      "XX": {
        "(MONIT)": {
          "x4code": [
            "(94-PU-239(N,F),,INT)"
          ],
          "freetext": [
            ""
          ]
        }
      }
    },
    "SAMPLE": {
      "XX": {
        "0": {
          "freetext": [
            "ISOTOPIC COMPOSITION OF SAMPLE WAS",
            "  PU-239    99.928 PERCENT",
            "  PU-240      .021  PERCENT",
            "  PU-241      .001 PERCENT",
            "SAMPLE WAS COATED 1 TO 1.4 G/M**2 AND 7.6 CM DIAMETER",
            "  ON ALUMINUM DISKS 10 CM DIAMETER AND 0.001 CM THICK."
          ]
        }
      }
    }
  },
  "common_data": {
    "heads": [
      "EN-NRM-MIN",
      "EN-NRM-MAX",
      "MONIT"
    ],
    "units": [
      "EV",
      "EV",
      "B*EV"
    ],
    "data": {
      "0": [
        0.02001
      ],
      "1": [
        0.06001
      ],
      "2": [
        25.15
      ]
    }
  },
  "data_table": {
    "heads": [
      "EN",
      "DATA",
      "ERR-S"
    ],
    "units": [
      "EV",
      "B",
      "B"
    ],
    "data": {
      "0": [
        0.001594,
        0.0016007,
        0.0016074,
        0.0016142,
        0.001621,
        0.0016278,
        0.0016347,
        0.0016417,
        0.0016487,
        0.0016557,
        0.0016628,
        0.0016699,
        0.0016771,
        0.0016843,
        0.0016915,
        0.0016988,
        0.0017062,
        0.0017136,
        0.001721,
        0.0017285,
        0.0017361,
        0.0017437,
        0.0017513,
        0.001759,
        0.0017668,
        0.0017746,
        0.0017824,
        0.0017903,
        0.0017983,
        0.0018063,
        0.0018143,
        0.0018225,
        0.0018306,
        0.0018389,
        0.0018471,
        0.0018555,
        0.0018639,
        0.0018723,
        0.0018808,
        0.0018894,
        0.001898,
        0.0019067,
        0.0019155,
        0.0019243,
        0.0019331,
        0.0019421,
        0.001951,
        0.0019601,
        0.0019692,
        0.0019784,
        0.0019876,
        0.0019969,
        0.0020063,
        0.0020158,
        0.0020253,
        0.0020348,
        0.0020445,
        0.0020542,
        0.002064,
        0.0020738,
        0.0020837,
        0.0020937,
        0.0021038,
        0.0021139,
        0.0021241,
        0.0021344,
        0.0021448,
        0.0021552,
        0.0021657,
        0.0021763,
        0.002187,
        0.0021977,
        0.0022086,
        0.0022195,
        0.0022304,
        0.0022415,
        0.0022527,
        0.0022639,
        0.0022752,
        0.0022866,
        0.0022981,
        0.0023097,
        0.0023213,
        0.0023331,
        0.0023449,
        0.0023569,
        0.0023689,
        0.002381,
        0.0023932,
        0.0024055,
        0.0024179,
        0.0024304,
        0.002443,
        0.0024557,
        0.0024685,
        0.0024814,
        0.0024943,
        0.0025074,
        0.0025206,
        0.0025339,
        0.0025473,
        0.0025608,
        0.0025745,
        0.0025882,
        0.002602,
        0.002616,
        0.00263,
        0.0026442,
        0.0026585,
        0.0026729,
        0.0026874,
        0.0027021,
        0.0027168,
        0.0027317,
        0.0027467,
        0.0027619,
        0.0027771,
        0.0027925,
        0.002808,
        0.0028237,
        0.0028394,
        0.0028553,
        0.0028714,
        0.0028875,
        0.0029038,
        0.0029203,
        0.0029369,
        0.0029536,
        0.0029705,
        0.0029875,
        0.0030047,
        0.003022,
        0.0030395,
        0.0030571,
        0.0030748,
        0.0030928,
        0.0031108,
        0.0031291,
        0.0031475,
        0.0031661,
        0.0031848,
        0.0032037,
        0.0032227,
        0.003242,
        0.0032614,
        0.003281,
        0.0033007,
        0.0033207,
        0.0033408,
        0.0033611,
        0.0033816,
        0.0034023,
        0.0034231,
        0.0034442,
        0.0034654,
        0.0034869,
        0.0035086,
        0.0035304,
        0.0035525,
        0.0035747,
        0.0035972,
        0.0036199,
        0.0036428,
        0.0036659,
        0.0036893,
        0.0037128,
        0.0037366,
        0.0037607,
        0.0037849,
        0.0038094,
        0.0038341,
        0.0038591,
        0.0038843,
        0.0039098,
        0.0039355,
        0.0039615,
        0.0039877,
        0.0040142,
        0.0040409,
        0.004068,
        0.0040953,
        0.0041228,
        0.0041507,
        0.0041788,
        0.0042072,
        0.0042359,
        0.004265,
        0.0042943,
        0.0043239,
        0.0043538,
        0.004384,
        0.0044145,
        0.0044454,
        0.0044766,
        0.0045081,
        0.00454,
        0.0045722,
        0.0046047,
        0.0046376,
        0.0046708,
        0.0047044,
        0.0047384,
        0.0047641,
        0.0047813,
        0.0047987,
        0.0048161,
        0.0048337,
        0.0048513,
        0.004869,
        0.0048869,
        0.0049048,
        0.0049228,
        0.0049409,
        0.0049592,
        0.0049775,
        0.0049959,
        0.0050145,
        0.0050331,
        0.0050518,
        0.0050707,
        0.0050896,
        0.0051087,
        0.0051278,
        0.0051471,
        0.0051665,
        0.005186,
        0.0052056,
        0.0052253,
        0.0052451,
        0.0052651,
        0.0052851,
        0.0053053,
        0.0053256,
        0.005346,
        0.0053665,
        0.0053871,
        0.0054079,
        0.0054287,
        0.0054497,
        0.0054708,
        0.0054921,
        0.0055135,
        0.0055349,
        0.0055566,
        0.0055783,
        0.0056002,
        0.0056222,
        0.0056443,
        0.0056665,
        0.0056889,
        0.0057115,
        0.0057341,
        0.0057569,
        0.0057798,
        0.0058029,
        0.0058261,
        0.0058495,
        0.0058729,
        0.0058966,
        0.0059203,
        0.0059442,
        0.0059683,
        0.0059925,
        0.0060169,
        0.0060414,
        0.006066,
        0.0060908,
        0.0061158,
        0.0061409,
        0.0061661,
        0.0061916,
        0.0062171,
        0.0062429,
        0.0062688,
        0.0062948,
        0.006321,
        0.0063474,
        0.006374,
        0.0064007,
        0.0064276,
        0.0064546,
        0.0064819,
        0.0065093,
        0.0065368,
        0.0065646,
        0.0065925,
        0.0066206,
        0.0066489,
        0.0066774,
        0.006706,
        0.0067348,
        0.0067639,
        0.0067931,
        0.0068225,
        0.0068521,
        0.0068818,
        0.0069118,
        0.006942,
        0.0069724,
        0.0070029,
        0.0070337,
        0.0070647,
        0.0070959,
        0.0071272,
        0.0071588,
        0.0071906,
        0.0072227,
        0.0072549,
        0.0072873,
        0.00732,
        0.0073529,
        0.007386,
        0.0074193,
        0.0074529,
        0.0074867,
        0.0075207,
        0.007555,
        0.0075894,
        0.0076242,
        0.0076591,
        0.0076943,
        0.0077298,
        0.0077655,
        0.0078014,
        0.0078376,
        0.007874,
        0.0079107,
        0.0079477,
        0.0079849,
        0.0080224,
        0.0080601,
        0.0080981,
        0.0081364,
        0.0081749,
        0.0082138,
        0.0082528,
        0.0082922,
        0.0083319,
        0.0083718,
        0.0084121,
        0.0084526,
        0.0084934,
        0.0085345,
        0.0085759,
        0.0086177,
        0.0086597,
        0.008702,
        0.0087446,
        0.0087876,
        0.0088309,
        0.0088745,
        0.0089184,
        0.0089626,
        0.0090072,
        0.0090521,
        0.0090973,
        0.0091429,
        0.0091889,
        0.0092351,
        0.0092818,
        0.0093287,
        0.0093761,
        0.0094238,
        0.0094718,
        0.0095203,
        0.0095691,
        0.0096182,
        0.0096678,
        0.0097177,
        0.0097681,
        0.0098188,
        0.0098699,
        0.0099214,
        0.0099734,
        0.010026,
        0.010078,
        0.010132,
        0.010185,
        0.010239,
        0.010294,
        0.010349,
        0.010404,
        0.01046,
        0.010516,
        0.010572,
        0.01063,
        0.010687,
        0.010745,
        0.010804,
        0.010863,
        0.010922,
        0.010982,
        0.011043,
        0.011104,
        0.011165,
        0.011227,
        0.01129,
        0.011353,
        0.011416,
        0.01148,
        0.011545,
        0.01161,
        0.011676,
        0.011742,
        0.011809,
        0.011877,
        0.011945,
        0.012013,
        0.012083,
        0.012152,
        0.012223,
        0.012294,
        0.012365,
        0.012438,
        0.012511,
        0.012584,
        0.012658,
        0.012733,
        0.012809,
        0.012885,
        0.012962,
        0.01304,
        0.013118,
        0.013197,
        0.013276,
        0.013357,
        0.013438,
        0.01352,
        0.013603,
        0.013686,
        0.01377,
        0.013855,
        0.013941,
        0.014027,
        0.014115,
        0.014203,
        0.014292,
        0.014382,
        0.014473,
        0.014564,
        0.014657,
        0.01475,
        0.014844,
        0.014939,
        0.015035,
        0.015132,
        0.01523,
        0.015329,
        0.015429,
        0.015529,
        0.015631,
        0.015734,
        0.015838,
        0.015943,
        0.016049,
        0.016155,
        0.016263,
        0.016373,
        0.016483,
        0.016594,
        0.016707,
        0.01682,
        0.016935,
        0.017051,
        0.017168,
        0.017286,
        0.017406,
        0.017527,
        0.017649,
        0.017772,
        0.017897,
        0.018023,
        0.01815,
        0.018279,
        0.018409,
        0.01854,
        0.018673,
        0.018807,
        0.018943,
        0.01908,
        0.019219,
        0.019359,
        0.019501,
        0.019644,
        0.019789,
        0.019935,
        0.020083,
        0.020233,
        0.020385,
        0.020538,
        0.020693,
        0.02085,
        0.021008,
        0.021168,
        0.02133,
        0.021494,
        0.02166,
        0.021828,
        0.021998,
        0.02217,
        0.022343,
        0.022519,
        0.022697,
        0.022877,
        0.023059,
        0.023244,
        0.02343,
        0.023619,
        0.02381,
        0.024004,
        0.024199,
        0.024398,
        0.024598,
        0.024801,
        0.025007,
        0.025215,
        0.025426,
        0.02564,
        0.025856,
        0.026075,
        0.026297,
        0.026521,
        0.026749,
        0.026979,
        0.027213,
        0.027449,
        0.027689,
        0.027932,
        0.028177,
        0.028427,
        0.028679,
        0.028935,
        0.029194,
        0.029457,
        0.029724,
        0.029994,
        0.030267,
        0.030545,
        0.030826,
        0.031111,
        0.031401,
        0.031694,
        0.031991,
        0.032293,
        0.032599,
        0.032909,
        0.033224,
        0.033543,
        0.033867,
        0.034195,
        0.034528,
        0.034867,
        0.03521,
        0.035558,
        0.035912,
        0.036271,
        0.036635,
        0.037005,
        0.03738,
        0.037761,
        0.038148,
        0.038541,
        0.03894,
        0.039346,
        0.039757,
        0.040175,
        0.0406,
        0.041032,
        0.04147,
        0.041916,
        0.042368,
        0.042829,
        0.043296,
        0.043772,
        0.044255,
        0.044746,
        0.045246,
        0.045754,
        0.04627,
        0.046796,
        0.04733,
        0.047873,
        0.048426,
        0.048989,
        0.049561,
        0.050144,
        0.050737,
        0.05134,
        0.051955,
        0.05258,
        0.053217,
        0.053865,
        0.054525,
        0.055198,
        0.055883,
        0.056581,
        0.057292,
        0.058016,
        0.058754,
        0.059507,
        0.060274,
        0.061056,
        0.061653,
        0.062055,
        0.062462,
        0.062872,
        0.063287,
        0.063705,
        0.064128,
        0.064555,
        0.064987,
        0.065422,
        0.065862,
        0.066307,
        0.066756,
        0.06721,
        0.067668,
        0.068131,
        0.068599,
        0.069071,
        0.069549,
        0.070031,
        0.070519,
        0.071011,
        0.071509,
        0.072012,
        0.072521,
        0.073034,
        0.073554,
        0.074078,
        0.074609,
        0.075145,
        0.075687,
        0.076235,
        0.076789,
        0.077348,
        0.077914,
        0.078487,
        0.079065,
        0.07965,
        0.080242,
        0.08084,
        0.081445,
        0.082056,
        0.082675,
        0.083301,
        0.083933,
        0.084573,
        0.085221,
        0.085875,
        0.086538,
        0.087208,
        0.087886,
        0.088571,
        0.089265,
        0.089967,
        0.090677,
        0.091396,
        0.092124,
        0.09286,
        0.093605,
        0.094359,
        0.095122,
        0.095894,
        0.096676,
        0.097467,
        0.098268,
        0.099079,
        0.099901,
        0.10073,
        0.10157,
        0.10243,
        0.10329,
        0.10416,
        0.10505,
        0.10595,
        0.10685,
        0.10777,
        0.10871,
        0.10965,
        0.11061,
        0.11157,
        0.11256,
        0.11355,
        0.11456,
        0.11558,
        0.11662,
        0.11767,
        0.11873,
        0.11981,
        0.1209,
        0.12201,
        0.12313,
        0.12427,
        0.12542,
        0.12659,
        0.12778,
        0.12898,
        0.1302,
        0.13144,
        0.1327,
        0.13397,
        0.13526,
        0.13658,
        0.13791,
        0.13926,
        0.14063,
        0.14202,
        0.14343,
        0.14486,
        0.14631,
        0.14779,
        0.14929,
        0.15081,
        0.15235,
        0.15392,
        0.15551,
        0.15713,
        0.15877,
        0.16044,
        0.16214,
        0.16386,
        0.16561,
        0.16739,
        0.16919,
        0.17103,
        0.17289,
        0.17479,
        0.17672,
        0.17868,
        0.18067,
        0.1827,
        0.18476,
        0.18685,
        0.18899,
        0.19115,
        0.19336,
        0.1956,
        0.19789,
        0.20021,
        0.20258,
        0.20498,
        0.20743,
        0.20993,
        0.21247,
        0.21506,
        0.21769,
        0.22037,
        0.2231,
        0.22589,
        0.22872,
        0.23161,
        0.23456,
        0.23756,
        0.24062,
        0.24374,
        0.24692,
        0.25016,
        0.25346,
        0.25684,
        0.26028,
        0.26379,
        0.26737,
        0.27102,
        0.27475,
        0.27856,
        0.28245,
        0.28642,
        0.29047,
        0.29461,
        0.29884,
        0.30316,
        0.30758,
        0.31209,
        0.3167,
        0.32142,
        0.32624,
        0.33117,
        0.33622,
        0.34138,
        0.34666,
        0.35206,
        0.35759,
        0.36325,
        0.36905,
        0.37499,
        0.38107,
        0.3873,
        0.39369,
        0.40023,
        0.40694,
        0.41382,
        0.42088,
        0.42811,
        0.43554,
        0.44316,
        0.45098,
        0.45901,
        0.46726,
        0.47573,
        0.48443,
        0.49338,
        0.49887,
        0.50072,
        0.50258,
        0.50445,
        0.50633,
        0.50822,
        0.51012,
        0.51203,
        0.51395,
        0.51589,
        0.51783,
        0.51979,
        0.52175,
        0.52373,
        0.52572,
        0.52772,
        0.52973,
        0.53176,
        0.53379,
        0.53584,
        0.5379,
        0.53997,
        0.54205,
        0.54415,
        0.54625,
        0.54837,
        0.5505,
        0.55265,
        0.5548,
        0.55697,
        0.55916,
        0.56135,
        0.56356,
        0.56578,
        0.56801,
        0.57026,
        0.57252,
        0.57479,
        0.57708,
        0.57938,
        0.5817,
        0.58403,
        0.58637,
        0.58873,
        0.5911,
        0.59348,
        0.59588,
        0.5983,
        0.60073,
        0.60317,
        0.60563,
        0.60811,
        0.61059,
        0.6131,
        0.61562,
        0.61816,
        0.62071,
        0.62327,
        0.62586,
        0.62846,
        0.63107,
        0.6337,
        0.63635,
        0.63902,
        0.6417,
        0.6444,
        0.64711,
        0.64985,
        0.6526,
        0.65537,
        0.65815,
        0.66095,
        0.66378,
        0.66662,
        0.66947,
        0.67235,
        0.67524,
        0.67816,
        0.68109,
        0.68404,
        0.68701,
        0.69,
        0.69301,
        0.69604,
        0.69909,
        0.70216,
        0.70525,
        0.70836,
        0.71149,
        0.71464,
        0.71781,
        0.72101,
        0.72422,
        0.72746,
        0.73071,
        0.73399,
        0.7373,
        0.74062,
        0.74397,
        0.74734,
        0.75073,
        0.75415,
        0.75759,
        0.76105,
        0.76454,
        0.76805,
        0.77158,
        0.77514,
        0.77872,
        0.78233,
        0.78597,
        0.78963,
        0.79331,
        0.79702,
        0.80076,
        0.80452,
        0.80831,
        0.81213,
        0.81597,
        0.81985,
        0.82375,
        0.82767,
        0.83163,
        0.83561,
        0.83962,
        0.84366,
        0.84773,
        0.85183,
        0.85596,
        0.86012,
        0.86431,
        0.86853,
        0.87279,
        0.87707,
        0.88138,
        0.88573,
        0.89011,
        0.89452,
        0.89896,
        0.90344,
        0.90795,
        0.9125,
        0.91708,
        0.92169,
        0.92634,
        0.93102,
        0.93574,
        0.9405,
        0.94529,
        0.95012,
        0.95498,
        0.95989,
        0.96483,
        0.96981,
        0.97482,
        0.97988,
        0.98498,
        0.99011,
        0.99529,
        1.0005,
        1.0058,
        1.0111,
        1.0164,
        1.0218,
        1.0272,
        1.0327,
        1.0382,
        1.0438,
        1.0494,
        1.055,
        1.0607,
        1.0664,
        1.0722,
        1.0781,
        1.084,
        1.0899,
        1.0959,
        1.1019,
        1.108,
        1.1141,
        1.1203,
        1.1265,
        1.1328,
        1.1391,
        1.1455,
        1.152,
        1.1585,
        1.165,
        1.1716,
        1.1783,
        1.185,
        1.1918,
        1.1986,
        1.2055,
        1.2125,
        1.2195,
        1.2266,
        1.2337,
        1.2409,
        1.2482,
        1.2555,
        1.2629,
        1.2704,
        1.2779,
        1.2855,
        1.2932,
        1.3009,
        1.3087,
        1.3166,
        1.3245,
        1.3325,
        1.3406,
        1.3488,
        1.357,
        1.3653,
        1.3737,
        1.3822,
        1.3907,
        1.3993,
        1.408,
        1.4168,
        1.4257,
        1.4346,
        1.4437,
        1.4528,
        1.462,
        1.4713,
        1.4807,
        1.4902,
        1.4997,
        1.5094,
        1.5191,
        1.529,
        1.5389,
        1.549,
        1.5591,
        1.5693,
        1.5797,
        1.5901,
        1.6007,
        1.6113,
        1.6221,
        1.633,
