{
  "id": "10035007XX",
  "reaction": {
    "x4code": "(94-PU-239(N,G)94-PU-240,,SIG)",
    "target": "94-PU-239",
    "process": "N,G",
    "sf4": "94-PU-240",
    "residual": null,
    "sf5": null,
    "sf6": "SIG",
    "sf7": null,
    "sf8": null,
    "sf9": null,
    "freetext": []
  },
  "measurement_conditions": {
    "ERR-ANALYS": {
      "XX": {
        "0": {
          "freetext": [
            "Statistical error is about 0.1 to 0.2 b at 20 keV and",
            " about 2 b at 20 eV.",
            "See Nuc.Sci.Eng.45, 25 (1971) for complete discussion",
            " of errors."
          ]
        }
      }
    },
    "MONITOR": {
      "XX": {
        "0": {
          "x4code": [
            "(94-PU-239(N,G)94-PU-240,,SIG)"
          ],
          "freetext": [
            "",
            "Normalized to low energy ionization chamber data using",
            " the energy integral from 7 to 37.5 eV for absorption",
            " = 3072 b-eV."
          ]
        }
      }
    }
  },
  "common_data": null,
  "data_table": {
    "heads": [
      "EN",
      "DATA"
    ],
    "units": [
      "EV",
      "B"
    ],
    "data": [
      [
        39.166,
        39.25,
        39.336,
        39.421,
        39.507,
        39.593,
        39.679,
        39.765,
        39.852,
        39.939,
        40.027,
        40.114,
        40.202,
        40.291,
        40.379,
        40.468,
        40.557,
        40.647,
        40.736,
        40.826,
        40.917,
        41.007,
        41.098,
        41.189,
        41.281,
        41.373,
        41.465,
        41.557,
        41.65,
        41.743,
        41.837,
        41.93,
        42.024,
        42.119,
        42.213,
        42.308,
        42.404,
        42.499,
        42.595,
        42.691,
        42.788,
        42.885,
        42.982,
        43.08,
        43.178,
        43.276,
        43.374,
        43.473,
        43.573,
        43.672,
        43.772,
        43.872,
        43.973,
        44.074,
        44.175,
        44.277,
        44.379,
        44.481,
        44.584,
        44.687,
        44.791,
        44.894,
        44.998,
        45.103,
        45.208,
        45.313,
        45.419,
        45.525,
        45.631,
        45.738,
        45.845,
        45.952,
        46.06,
        46.169,
        46.277,
        46.386,
        46.496,
        46.605,
        46.716,
        46.826,
        46.937,
        47.048,
        47.16,
        47.272,
        47.385,
        47.498,
        47.611,
        47.725,
        47.839,
        47.954,
        48.069,
        48.184,
        48.3,
        48.416,
        48.533,
        48.65,
        48.767,
        48.885,
        49.004,
        49.122,
        49.242,
        49.361,
        49.481,
        49.602,
        49.723,
        49.844,
        49.966,
        50.089,
        50.211,
        50.335,
        50.458,
        50.582,
        50.707,
        50.832,
        50.957,
        51.083,
        51.21,
        51.337,
        51.464,
        51.592,
        51.72,
        51.849,
        51.978,
        52.108,
        52.239,
        52.369,
        52.501,
        52.632,
        52.765,
        52.897,
        53.03,
        53.164,
        53.298,
        53.433,
        53.568,
        53.704,
        53.841,
        53.977,
        54.115,
        54.253,
        54.391,
        54.53,
        54.669,
        54.809,
        54.95,
        55.091,
        55.233,
        55.375,
        55.517,
        55.661,
        55.805,
        55.949,
        56.094,
        56.239,
        56.385,
        56.532,
        56.679,
        56.827,
        56.975,
        57.124,
        57.274,
        57.424,
        57.575,
        57.726,
        57.878,
        58.03,
        58.184,
        58.337,
        58.492,
        58.647,
        58.802,
        58.958,
        59.115,
        59.273,
        59.431,
        59.589,
        59.749,
        59.909,
        60.069,
        60.23,
        60.392,
        60.555,
        60.718,
        60.882,
        61.046,
        61.212,
        61.378,
        61.544,
        61.711,
        61.879,
        62.048,
        62.217,
        62.387,
        62.558,
        62.729,
        62.901,
        63.074,
        63.248,
        63.422,
        63.597,
        63.772,
        63.949,
        64.126,
        64.304,
        64.482,
        64.662,
        64.842,
        65.023,
        65.204,
        65.387,
        65.57,
        65.754,
        65.939,
        66.124,
        66.31,
        66.497,
        66.685,
        66.874,
        67.063,
        67.254,
        67.445,
        67.636,
        67.829,
        68.023,
        68.217,
        68.412,
        68.608,
        68.805,
        69.003,
        69.201,
        69.401,
        69.601,
        69.802,
        70.004,
        70.207,
        70.411,
        70.616,
        70.821,
        71.028,
        71.183,
        71.287,
        71.391,
        71.495,
        71.6,
        71.705,
        71.81,
        71.915,
        72.021,
        72.126,
        72.232,
        72.339,
        72.445,
        72.552,
        72.659,
        72.766,
        72.873,
        72.981,
        73.089,
        73.197,
        73.305,
        73.414,
        73.523,
        73.632,
        73.741,
        73.851,
        73.96,
        74.071,
        74.181,
        74.291,
        74.402,
        74.513,
        74.625,
        74.736,
        74.848,
        74.96,
        75.072,
        75.185,
        75.298,
        75.411,
        75.524,
        75.637,
        75.751,
        75.865,
        75.98,
        76.094,
        76.209,
        76.324,
        76.44,
        76.555,
        76.671,
        76.787,
        76.904,
        77.02,
        77.137,
        77.255,
        77.372,
        77.49,
        77.608,
        77.726,
        77.845,
        77.964,
        78.083,
        78.202,
        78.322,
        78.442,
        78.562,
        78.682,
        78.803,
        78.924,
        79.046,
        79.167,
        79.289,
        79.411,
        79.534,
        79.656,
        79.779,
        79.903,
        80.026,
        80.15,
        80.274,
        80.399,
        80.524,
        80.649,
        80.774,
        80.899,
        81.025,
        81.152,
        81.278,
        81.405,
        81.532,
        81.659,
        81.787,
        81.915,
        82.043,
        82.172,
        82.301,
        82.43,
        82.559,
        82.689,
        82.819,
        82.95,
        83.081,
        83.212,
        83.343,
        83.475,
        83.607,
        83.739,
        83.871,
        84.004,
        84.138,
        84.271,
        84.405,
        84.539,
        84.674,
        84.808,
        84.944,
        85.079,
        85.215,
        85.351,
        85.487,
        85.624,
        85.761,
        85.899,
        86.037,
        86.175,
        86.313,
        86.452,
        86.591,
        86.73,
        86.87,
        87.01,
        87.151,
        87.291,
        87.433,
        87.574,
        87.716,
        87.858,
        88.001,
        88.143,
        88.287,
        88.43,
        88.574,
        88.718,
        88.863,
        89.008,
        89.153,
        89.299,
        89.445,
        89.591,
        89.738,
        89.885,
        90.033,
        90.18,
        90.329,
        90.477,
        90.626,
        90.775,
        90.925,
        91.075,
        91.225,
        91.376,
        91.527,
        91.679,
        91.831,
        91.983,
        92.136,
        92.289,
        92.442,
        92.596,
        92.75,
        92.905,
        93.06,
        93.215,
        93.371,
        93.527,
        93.683,
        93.84,
        93.998,
        94.155,
        94.313,
        94.472,
        94.631,
        94.79,
        94.95,
        95.11,
        95.271,
        95.431,
        95.593,
        95.755,
        95.917,
        96.079,
        96.242,
        96.406,
        96.569,
        96.734,
        96.898,
        97.063,
        97.229,
        97.395,
        97.561,
        97.728,
        97.895,
        98.063,
        98.231,
        98.399,
        98.568,
        98.737,
        98.907,
        99.077,
        99.248,
        99.419,
        99.591,
        99.763,
        99.935,
        100.11,
        100.28,
        100.45,
        100.63,
        100.8,
        100.98,
        101.15,
        101.33,
        101.51,
        101.69,
        101.86,
        102.04,
        102.22,
        102.4,
        102.58,
        102.76,
        102.94,
        103.12,
        103.3,
        103.48,
        103.66,
        103.85,
        104.03,
        104.21,
        104.4,
        104.58,
        104.77,
        104.95,
        105.14,
        105.32,
        105.51,
        105.7,
        105.89,
        106.07,
        106.26,
        106.45,
        106.64,
        106.83,
        107.03,
        107.22,
        107.41,
        107.6,
        107.79,
        107.99,
        108.18,
        108.38,
        108.57,
        108.77,
        108.96,
        109.16,
        109.36,
        109.56,
        109.76,
        109.95,
        110.15,
        110.35,
        110.56,
        110.76,
        110.96,
        111.16,
        111.36,
        111.57,
        111.77,
        111.98,
        112.18,
        112.38,
        112.59,
        112.8,
        113.01,
        113.21,
        113.42,
        113.63,
        113.84,
        114.05,
        114.26,
        114.47,
        114.68,
        114.9,
        115.11,
        115.32,
        115.54,
        115.75,
        115.97,
        116.19,
        116.4,
        116.62,
        116.84,
        117.06,
        117.28,
        117.5,
        117.72,
        117.94,
        118.16,
        118.38,
        118.6,
        118.83,
        119.05,
        119.28,
        119.5,
        119.73,
        119.95,
        120.18,
        120.41,
        120.64,
        120.87,
        121.1,
        121.33,
        121.56,
        121.79,
        122.03,
        122.26,
        122.49,
        122.73,
        122.96,
        123.2,
        123.44,
        123.67,
        123.91,
        124.15,
        124.39,
        124.63,
        124.87,
        125.11,
        125.35,
        125.6,
        125.84,
        126.08,
        126.33,
        126.57,
        126.82,
        127.07,
        127.32,
        127.57,
        127.81,
        128.06,
        128.31,
        128.57,
        128.82,
        129.07,
        129.33,
        129.58,
        129.84,
        130.09,
        130.35,
        130.61,
        130.86,
        131.12,
        131.38,
        131.64,
        131.91,
        132.17,
        132.43,
        132.69,
        132.96,
        133.22,
        133.49,
        133.76,
        134.03,
        134.29,
        134.56,
        134.83,
        135.1,
        135.38,
        135.65,
        135.92,
        136.2,
        136.47,
        136.75,
        137.03,
        137.3,
        137.58,
        137.86,
        138.14,
        138.42,
        138.7,
        138.99,
        139.27,
        139.55,
        139.84,
        140.13,
        140.41,
        140.7,
        140.99,
        141.28,
        141.57,
        141.86,
        142.15,
        142.45,
        142.74,
        143.04,
        143.33,
        143.63,
        143.93,
        144.23,
        144.53,
        144.83,
        145.13,
        145.43,
        145.74,
        146.04,
        146.35,
        146.65,
        146.96,
        147.27,
        147.58,
        147.89,
        148.2,
        148.51,
        148.82,
        149.14,
        149.45,
        149.77,
        150.09,
        150.41,
        150.73,
        151.05,
        151.37,
        151.69,
        152.01,
        152.34,
        152.66,
        152.99,
        153.32,
        153.65,
        153.98,
        154.31,
        154.64,
        154.97,
        155.3,
        155.64,
        155.98,
        156.31,
        156.65,
        156.99,
        157.33,
        157.67,
        158.02,
        158.36,
        158.7,
        159.05,
        159.4,
        159.75,
        160.1,
        160.45,
        160.8,
        161.15,
        161.51,
        161.86,
        162.22,
        162.57,
        162.93,
        163.29,
        163.65,
        164.02,
        164.29,
        164.47,
        164.65,
        164.84,
        165.02,
        165.2,
        165.39,
        165.57,
        165.76,
        165.94,
        166.12,
        166.31,
        166.5,
        166.68,
        166.87,
        167.05,
        167.24,
        167.43,
        167.62,
        167.8,
        167.99,
        168.18,
        168.37,
        168.56,
        168.75,
        168.94,
        169.13,
        169.32,
        169.51,
        169.7,
        169.89,
        170.08,
        170.27,
        170.46,
        170.66,
        170.85,
        171.04,
        171.24,
        171.43,
        171.62,
        171.82,
        172.01,
        172.21,
        172.4,
        172.6,
        172.8,
        172.99,
        173.19,
        173.39,
        173.58,
        173.78,
        173.98,
        174.18,
        174.38,
        174.58,
        174.78,
        174.98,
        175.18,
        175.38,
        175.58,
        175.78,
        175.98,
        176.18,
        176.38,
        176.59,
        176.79,
        176.99,
        177.2,
        177.4,
        177.6,
        177.81,
        178.01,
        178.22,
        178.43,
        178.63,
        178.84,
        179.05,
        179.25,
        179.46,
        179.67,
        179.88,
        180.09,
        180.29,
        180.5,
        180.71,
        180.92,
        181.13,
        181.34,
        181.56,
        181.77,
        181.98,
        182.19,
        182.41,
        182.62,
        182.83,
        183.04,
        183.26,
        183.47,
        183.69,
        183.9,
        184.12,
        184.34,
        184.55,
        184.77,
        184.99,
        185.2,
        185.42,
        185.64,
        185.86,
        186.08,
        186.3,
        186.52,
        186.74,
        186.96,
        187.18,
        187.4,
        187.62,
        187.85,
        188.07,
        188.29,
        188.51,
        188.74,
        188.96,
        189.19,
        189.41,
        189.64,
        189.86,
        190.09,
        190.32,
        190.54,
        190.77,
        191.0,
        191.23,
        191.46,
        191.69,
        191.91,
        192.14,
        192.38,
        192.61,
        192.84,
        193.07,
        193.3,
        193.53,
        193.77,
        194.0,
        194.23,
        194.47,
        194.7,
        194.94,
        195.17,
        195.41,
        195.64,
        195.88,
        196.12,
        196.36,
        196.59,
        196.83,
        197.07,
        197.31,
        197.55,
        197.79,
        198.03,
        198.27,
        198.51,
        198.76,
        199.0,
        199.24,
        199.48,
        199.73,
        199.97,
        200.22,
        200.46,
        200.71,
        200.95,
        201.2,
        201.45,
        201.69,
        201.94,
        202.19,
        202.44,
        202.69,
        202.94,
        203.19,
        203.44,
        203.69,
        203.94,
        204.19,
        204.44,
        204.7,
        204.95,
        205.2,
        205.46,
        205.71,
        205.97,
        206.22,
        206.48,
        206.74,
        206.99,
        207.25,
        207.51,
        207.77,
        208.03,
        208.29,
        208.55,
        208.81,
        209.07,
        209.33,
        209.59,
        209.85,
        210.12,
        210.38,
        210.65,
        210.91,
        211.17,
        211.44,
        211.7,
        211.97,
        212.24,
        212.51,
        212.77,
        213.04,
        213.31,
        213.58,
        213.85,
        214.12,
        214.39,
        214.66,
        214.94,
        215.21,
        215.48,
        215.76,
        216.03,
        216.3,
        216.58,
        216.85,
        217.13,
        217.41,
        217.68,
        217.96,
        218.24,
        218.52,
        218.8,
        219.08,
        219.36,
        219.64,
        219.92,
        220.2,
        220.49,
        220.77,
        221.06,
        221.34,
        221.62,
        221.91,
        222.19,
        222.48,
        222.77,
        223.06,
        223.34,
        223.63,
        223.92,
        224.21,
        224.5,
        224.79,
        225.09,
        225.38,
        225.67,
        225.96,
        226.26,
        226.55,
        226.85,
        227.14,
        227.44,
        227.73,
        228.03,
        228.33,
        228.63,
        228.93,
        229.23,
        229.53,
        229.83,
        230.13,
        230.43,
        230.73,
        231.04,
        231.34,
        231.64,
        231.95,
        232.26,
        232.56,
        232.87,
        233.18,
        233.48,
        233.79,
        234.1,
        234.41,
        234.72,
        235.03,
        235.34,
        235.66,
        235.97,
        236.28,
        236.6,
        236.91,
        237.23,
        237.54,
        237.86,
        238.18,
        238.5,
        238.82,
        239.13,
        239.45,
        239.77,
        240.1,
        240.42,
        240.74,
        241.06,
        241.39,
        241.71,
        242.04,
        242.36,
        242.69,
        243.01,
        243.34,
        243.67,
        244.0,
        244.33,
        244.66,
        244.99,
        245.32,
        245.66,
        245.99,
        246.32,
        246.66,
        246.99,
        247.33,
        247.66,
        248.0,
        248.34,
        248.68,
        249.02,
        249.36,
        249.7,
        250.04,
        250.38,
        250.72,
        251.07,
        251.41,
        251.76,
        252.1,
        252.45,
        252.79,
        253.14,
        253.49,
        253.84,
        254.19,
        254.54,
        254.89,
        255.24,
        255.6,
        255.95,
        256.3,
        256.66,
        257.01,
        257.37,
        257.73,
        258.09,
        258.44,
        258.8,
        259.16,
        259.53,
        259.89,
        260.25,
        260.61,
        260.98,
        261.34,
        261.71,
        262.07,
        262.44,
        262.81,
        263.18,
        263.55,
        263.92,
        264.29,
        264.66,
        265.03,
        265.4,
        265.78,
        266.15,
        266.53,
        266.91,
        267.28,
        267.66,
        268.04,
        268.42,
        268.8,
        269.18,
        269.56,
        269.95,
        270.33,
        270.71,
        271.1,
        271.49,
        271.87,
        272.26,
        272.65,
        273.04,
        273.43,
        273.82,
        274.21,
        274.6,
        275.0,
        275.39,
        275.79,
        276.18,
        276.58,
        276.98,
        277.38,
        277.78,
        278.18,
        278.58,
        278.98,
        279.39,
        279.79,
        280.19,
        280.6,
        281.01,
        281.41,
        281.82,
        282.23,
        282.64,
        283.05,
        283.47,
        283.88,
        284.29,
        284.71,
        285.12,
        285.54,
        285.96,
        286.37,
        286.79,
        287.21,
        287.63,
        288.06,
        288.48,
        288.9,
        289.33,
        289.75,
        290.18,
        290.61,
        291.04,
        291.47,
        291.9,
        292.33,
        292.76,
        293.19,
        293.63,
        294.06,
        294.5,
        294.94,
        295.38,
        295.81,
        296.25,
        296.7,
        297.14,
        297.58,
        298.03,
        298.47,
        298.92,
        299.36,
        299.81,
        300.26,
        300.71,
        301.16,
        301.61,
        302.07,
        302.52,
