{
  "id": "10035006XX",
  "reaction": {
    "x4code": "(94-PU-239(N,G)94-PU-240,,SIG)",
    "target": "94-PU-239",
    "process": "N,G",
    "sf4": "94-PU-240",
    "residual": null,
    "sf5": null,
    "sf6": "SIG",
    "sf7": null,
    "sf8": null,
    "sf9": null,
    "freetext": []
  },
  "measurement_conditions": {
    "ERR-ANALYS": {
      "XX": {
        "0": {
          "freetext": [
            "See Nuc.Sci.Eng.45, 25 (1971) for complete discussion",
            " of errors."
          ]
        }
      }
    },
    "MONITOR": {
      "XX": {
        "0": {
          "x4code": [
            "(94-PU-239(N,G)94-PU-240,,SIG)"
          ],
          "freetext": [
            ""
          ]
        }
      }
    }
  },
  "common_data": {
    "heads": [
      "EN-NRM",
      "MONIT",
      "MONIT-ERR"
    ],
    "units": [
      "EV",
      "B",
      "B"
    ],
    "data": [
      [
        0.0253
      ],
      [
        271.3
      ],
      [
        2.6
      ]
    ]
  },
  "data_table": {
    "heads": [
      "EN",
      "DATA"
    ],
    "units": [
      "EV",
      "B"
    ],
    "data": [
      [
        0.018955,
        0.019187,
        0.019424,
        0.019664,
        0.01991,
        0.02016,
        0.020415,
        0.020674,
        0.020939,
        0.021209,
        0.021484,
        0.021764,
        0.02205,
        0.022341,
        0.022639,
        0.022942,
        0.023251,
        0.023567,
        0.023889,
        0.024218,
        0.024554,
        0.024897,
        0.025247,
        0.025604,
        0.025969,
        0.026342,
        0.026723,
        0.027113,
        0.027511,
        0.027918,
        0.028333,
        0.028759,
        0.029193,
        0.029638,
        0.030093,
        0.030559,
        0.031035,
        0.031523,
        0.032022,
        0.032534,
        0.033057,
        0.033594,
        0.034143,
        0.034706,
        0.035284,
        0.035875,
        0.036482,
        0.037104,
        0.037742,
        0.038397,
        0.039069,
        0.039759,
        0.040468,
        0.041195,
        0.041942,
        0.04271,
        0.043499,
        0.04431,
        0.045144,
        0.046002,
        0.046884,
        0.047792,
        0.048727,
        0.049689,
        0.05068,
        0.051701,
        0.052754,
        0.053838,
        0.054957,
        0.056111,
        0.057301,
        0.05853,
        0.059799,
        0.061109,
        0.062463,
        0.063863,
        0.06531,
        0.066806,
        0.068355,
        0.069959,
        0.071619,
        0.073339,
        0.075122,
        0.076971,
        0.078889,
        0.080879,
        0.082946,
        0.085093,
        0.087325,
        0.089645,
        0.092059,
        0.094572,
        0.09719,
        0.09871,
        0.099053,
        0.099397,
        0.099743,
        0.10009,
        0.10044,
        0.10079,
        0.10115,
        0.1015,
        0.10186,
        0.10222,
        0.10258,
        0.10294,
        0.10331,
        0.10367,
        0.10404,
        0.10441,
        0.10479,
        0.10516,
        0.10554,
        0.10592,
        0.1063,
        0.10668,
        0.10707,
        0.10745,
        0.10784,
        0.10823,
        0.10863,
        0.10902,
        0.10942,
        0.10982,
        0.11022,
        0.11063,
        0.11104,
        0.11144,
        0.11186,
        0.11227,
        0.11268,
        0.1131,
        0.11352,
        0.11395,
        0.11437,
        0.1148,
        0.11523,
        0.11566,
        0.11609,
        0.11653,
        0.11697,
        0.11741,
        0.11786,
        0.11831,
        0.11876,
        0.11921,
        0.11966,
        0.12012,
        0.12058,
        0.12104,
        0.12151,
        0.12198,
        0.12245,
        0.12292,
        0.1234,
        0.12388,
        0.12436,
        0.12484,
        0.12533,
        0.12582,
        0.12631,
        0.12681,
        0.12731,
        0.12781,
        0.12832,
        0.12883,
        0.12934,
        0.12985,
        0.13037,
        0.13089,
        0.13141,
        0.13194,
        0.13247,
        0.133,
        0.13354,
        0.13408,
        0.13462,
        0.13517,
        0.13571,
        0.13627,
        0.13682,
        0.13738,
        0.13795,
        0.13851,
        0.13908,
        0.13966,
        0.14023,
        0.14081,
        0.1414,
        0.14198,
        0.14258,
        0.14317,
        0.14377,
        0.14437,
        0.14498,
        0.14559,
        0.1462,
        0.14682,
        0.14744,
        0.14807,
        0.1487,
        0.14933,
        0.14997,
        0.15061,
        0.15126,
        0.15191,
        0.15257,
        0.15322,
        0.15389,
        0.15456,
        0.15523,
        0.1559,
        0.15658,
        0.15727,
        0.15796,
        0.15865,
        0.15935,
        0.16005,
        0.16076,
        0.16148,
        0.16219,
        0.16292,
        0.16364,
        0.16437,
        0.16511,
        0.16585,
        0.1666,
        0.16735,
        0.16811,
        0.16887,
        0.16964,
        0.17041,
        0.17119,
        0.17197,
        0.17276,
        0.17356,
        0.17436,
        0.17516,
        0.17597,
        0.17679,
        0.17761,
        0.17844,
        0.17927,
        0.18011,
        0.18096,
        0.18181,
        0.18266,
        0.18353,
        0.1844,
        0.18527,
        0.18616,
        0.18704,
        0.18794,
        0.18884,
        0.18975,
        0.19066,
        0.19158,
        0.19251,
        0.19344,
        0.19439,
        0.19533,
        0.19629,
        0.19725,
        0.19822,
        0.1992,
        0.20018,
        0.20117,
        0.20217,
        0.20317,
        0.20419,
        0.20521,
        0.20624,
        0.20727,
        0.20832,
        0.20937,
        0.21043,
        0.2115,
        0.21257,
        0.21366,
        0.21475,
        0.21585,
        0.21696,
        0.21808,
        0.2192,
        0.22034,
        0.22148,
        0.22264,
        0.2238,
        0.22497,
        0.22615,
        0.22734,
        0.22854,
        0.22975,
        0.23097,
        0.2322,
        0.23343,
        0.23468,
        0.23594,
        0.23721,
        0.23849,
        0.23977,
        0.24107,
        0.24238,
        0.2437,
        0.24504,
        0.24638,
        0.24773,
        0.2491,
        0.25047,
        0.25186,
        0.25326,
        0.25467,
        0.25609,
        0.25752,
        0.25897,
        0.26043,
        0.2619,
        0.26338,
        0.26488,
        0.26639,
        0.26791,
        0.26945,
        0.27099,
        0.27256,
        0.27413,
        0.27572,
        0.27732,
        0.27894,
        0.28057,
        0.28221,
        0.28387,
        0.28555,
        0.28724,
        0.28894,
        0.29066,
        0.29239,
        0.29415,
        0.29591,
        0.29769,
        0.29949,
        0.30131,
        0.30314,
        0.30498,
        0.30685,
        0.30873,
        0.31063,
        0.31255,
        0.31448,
        0.31644,
        0.31841,
        0.3204,
        0.3224,
        0.32443,
        0.32648,
        0.32854,
        0.33063,
        0.33273,
        0.33486,
        0.337,
        0.33917,
        0.34136,
        0.34357,
        0.3458,
        0.34805,
        0.35032,
        0.35262,
        0.35494,
        0.35728,
        0.35965,
        0.36203,
        0.36445,
        0.36688,
        0.36935,
        0.37183,
        0.37434,
        0.37688,
        0.37944,
        0.38203,
        0.38465,
        0.38729,
        0.38996,
        0.39266,
        0.39539,
        0.39814,
        0.40092,
        0.40374,
        0.40658,
        0.40945,
        0.41235,
        0.41529,
        0.41825,
        0.42125,
        0.42428,
        0.42734,
        0.43044,
        0.43357,
        0.43673,
        0.43993,
        0.44316,
        0.44643,
        0.44974,
        0.45308,
        0.45646,
        0.45988,
        0.46333,
        0.46683,
        0.47036,
        0.47394,
        0.47755,
        0.48121,
        0.48491,
        0.48866,
        0.49244,
        0.49627,
        0.50015,
        0.50407,
        0.50804,
        0.51205,
        0.51611,
        0.52022,
        0.52438,
        0.5286,
        0.53286,
        0.53717,
        0.54153,
        0.54595,
        0.55043,
        0.55495,
        0.55954,
        0.56418,
        0.56888,
        0.57364,
        0.57846,
        0.58334,
        0.58828,
        0.59328,
        0.59835,
        0.60348,
        0.60868,
        0.61395,
        0.61929,
        0.6247,
        0.63017,
        0.63572,
        0.64135,
        0.64704,
        0.65282,
        0.65867,
        0.6646,
        0.67061,
        0.67671,
        0.68288,
        0.68915,
        0.69549,
        0.70193,
        0.70846,
        0.71508,
        0.72179,
        0.72859,
        0.7355,
        0.7425,
        0.7496,
        0.7568,
        0.76411,
        0.77153,
        0.77905,
        0.78668,
        0.79443,
        0.80229,
        0.81027,
        0.81837,
        0.82659,
        0.83493,
        0.84341,
        0.85201,
        0.86074,
        0.86961,
        0.87862,
        0.88777,
        0.89706,
        0.90649,
        0.91608,
        0.92582,
        0.93572,
        0.94577,
        0.95599,
        0.96638,
        0.97693,
        0.98766,
        0.99446,
        0.9972,
        0.99995,
        1.003,
        1.005,
        1.008,
        1.011,
        1.014,
        1.017,
        1.02,
        1.022,
        1.025,
        1.028,
        1.031,
        1.034,
        1.037,
        1.04,
        1.043,
        1.046,
        1.048,
        1.051,
        1.054,
        1.057,
        1.06,
        1.063,
        1.066,
        1.069,
        1.073,
        1.076,
        1.079,
        1.082,
        1.085,
        1.088,
        1.091,
        1.094,
        1.097,
        1.101,
        1.104,
        1.107,
        1.11,
        1.113,
        1.117,
        1.12,
        1.123,
        1.127,
        1.13,
        1.133,
        1.136,
        1.14,
        1.143,
        1.147,
        1.15,
        1.153,
        1.157,
        1.16,
        1.164,
        1.167,
        1.171,
        1.174,
        1.178,
        1.181,
        1.185,
        1.188,
        1.192,
        1.195,
        1.199,
        1.203,
        1.206,
        1.21,
        1.214,
        1.217,
        1.221,
        1.225,
        1.229,
        1.232,
        1.236,
        1.24,
        1.244,
        1.247,
        1.251,
        1.255,
        1.259,
        1.263,
        1.267,
        1.271,
        1.275,
        1.279,
        1.283,
        1.287,
        1.291,
        1.295,
        1.299,
        1.303,
        1.307,
        1.311,
        1.315,
        1.32,
        1.324,
        1.328,
        1.332,
        1.336,
        1.341,
        1.345,
        1.349,
        1.354,
        1.358,
        1.362,
        1.367,
        1.371,
        1.376,
        1.38,
        1.385,
        1.389,
        1.394,
        1.398,
        1.403,
        1.407,
        1.412,
        1.416,
        1.421,
        1.426,
        1.431,
        1.435,
        1.44,
        1.445,
        1.45,
        1.454,
        1.459,
        1.464,
        1.469,
        1.474,
        1.479,
        1.484,
        1.489,
        1.494,
        1.499,
        1.504,
        1.509,
        1.514,
        1.519,
        1.524,
        1.53,
        1.535,
        1.54,
        1.545,
        1.551,
        1.556,
        1.561,
        1.567,
        1.572,
        1.578,
        1.583,
        1.589,
        1.594,
        1.6,
        1.605,
        1.611,
        1.617,
        1.622,
        1.628,
        1.634,
        1.64,
        1.645,
        1.651,
        1.657,
        1.663,
        1.669,
        1.675,
        1.681,
        1.687,
        1.693,
        1.699,
        1.705,
        1.711,
        1.717,
        1.724,
        1.73,
        1.736,
        1.742,
        1.749,
        1.755,
        1.762,
        1.768,
        1.775,
        1.781,
        1.788,
        1.794,
        1.801,
        1.808,
        1.814,
        1.821,
        1.828,
        1.835,
        1.842,
        1.848,
        1.855,
        1.862,
        1.869,
        1.876,
        1.884,
        1.891,
        1.898,
        1.905,
        1.912,
        1.92,
        1.927,
        1.934,
        1.942,
        1.949,
        1.957,
        1.964,
        1.972,
        1.98,
        1.987,
        1.995,
        2.003,
        2.011,
        2.019,
        2.027,
        2.035,
        2.043,
        2.051,
        2.059,
        2.067,
        2.075,
        2.083,
        2.092,
        2.1,
        2.108,
        2.117,
        2.125,
        2.134,
        2.143,
        2.151,
        2.16,
        2.169,
        2.178,
        2.186,
        2.195,
        2.204,
        2.213,
        2.223,
        2.232,
        2.241,
        2.25,
        2.259,
        2.269,
        2.278,
        2.288,
        2.297,
        2.307,
        2.317,
        2.326,
        2.336,
        2.346,
        2.356,
        2.366,
        2.376,
        2.386,
        2.396,
        2.407,
        2.417,
        2.427,
        2.438,
        2.448,
        2.459,
        2.47,
        2.48,
        2.491,
        2.502,
        2.513,
        2.524,
        2.535,
        2.546,
        2.557,
        2.569,
        2.58,
        2.592,
        2.603,
        2.615,
        2.626,
        2.638,
        2.65,
        2.662,
        2.674,
        2.686,
        2.698,
        2.71,
        2.723,
        2.735,
        2.748,
        2.76,
        2.773,
        2.786,
        2.799,
        2.812,
        2.825,
        2.838,
        2.851,
        2.864,
        2.878,
        2.891,
        2.905,
        2.918,
        2.932,
        2.946,
        2.96,
        2.974,
        2.988,
        3.003,
        3.017,
        3.032,
        6.761,
        6.786,
        6.81,
        6.835,
        6.859,
        6.884,
        6.909,
        6.934,
        6.96,
        6.985,
        7.01,
        7.036,
        7.062,
        7.088,
        7.114,
        7.14,
        7.166,
        7.193,
        7.22,
        7.246,
        7.273,
        7.3,
        7.328,
        7.355,
        7.383,
        7.41,
        7.438,
        7.466,
        7.494,
        7.523,
        7.551,
        7.58,
        7.609,
        7.638,
        7.667,
        7.696,
        7.726,
        7.755,
        7.785,
        7.815,
        7.845,
        7.876,
        7.906,
        7.937,
        7.968,
        7.999,
        8.03,
        8.062,
        8.093,
        8.125,
        8.157,
        8.189,
        8.222,
        8.254,
        8.287,
        8.32,
        8.353,
        8.386,
        8.42,
        8.454,
        8.488,
        8.522,
        8.556,
        8.591,
        8.626,
        8.661,
        8.696,
        8.731,
        8.767,
        8.803,
        8.839,
        8.875,
        8.912,
        8.949,
        8.986,
        9.023,
        9.06,
        9.098,
        9.136,
        9.174,
        9.212,
        9.251,
        9.29,
        9.329,
        9.368,
        9.408,
        9.448,
        9.488,
        9.529,
        9.569,
        9.61,
        9.651,
        9.693,
        9.734,
        9.776,
        9.819,
        9.861,
        9.904,
        9.947,
        9.99,
        10.034,
        10.078,
        10.122,
        10.167,
        10.211,
        10.257,
        10.302,
        10.348,
        10.394,
        10.44,
        10.487,
        10.534,
        10.581,
        10.628,
        10.676,
        10.725,
        10.773,
        10.822,
        10.871,
        10.921,
        10.971,
        11.021,
        11.071,
        11.122,
        11.174,
        11.225,
        11.277,
        11.33,
        11.382,
        11.435,
        11.489,
        11.543,
        11.597,
        11.651,
        11.706,
        11.762,
        11.818,
        11.874,
        11.93,
        11.987,
        12.045,
        12.102,
        12.161,
        12.219,
        12.278,
        12.338,
        12.398,
        12.458,
        12.519,
        12.58,
        12.642,
        12.704,
        12.767,
        12.83,
        12.893,
        12.957,
        13.006,
        13.038,
        13.07,
        13.103,
        13.136,
        13.169,
        13.202,
        13.235,
        13.268,
        13.301,
        13.335,
        13.368,
        13.402,
        13.436,
        13.47,
        13.504,
        13.538,
        13.573,
        13.607,
        13.642,
        13.677,
        13.712,
        13.747,
        13.782,
        13.817,
        13.853,
        13.888,
        13.924,
        13.96,
        13.996,
        14.032,
        14.068,
        14.105,
        14.141,
        14.178,
        14.215,
        14.252,
        14.289,
        14.326,
        14.363,
        14.401,
        14.439,
        14.477,
        14.515,
        14.553,
        14.591,
        14.63,
        14.668,
        14.707,
        14.746,
        14.785,
        14.824,
        14.864,
        14.903,
        14.943,
        14.983,
        15.023,
        15.063,
        15.103,
        15.144,
        15.184,
        15.225,
        15.266,
        15.307,
        15.349,
        15.39,
        15.432,
        15.474,
        15.516,
        15.558,
        15.6,
        15.643,
        15.686,
        15.728,
        15.772,
        15.815,
        15.858,
        15.902,
        15.946,
        15.99,
        16.034,
        16.078,
        16.122,
        16.167,
        16.212,
        16.257,
        16.302,
        16.348,
        16.393,
        16.439,
        16.485,
        16.531,
        16.578,
        16.624,
        16.671,
        16.718,
        16.765,
        16.813,
        16.86,
        16.908,
        16.956,
        17.004,
        17.053,
        17.101,
        17.15,
        17.199,
        17.248,
        17.298,
        17.347,
        17.397,
        17.447,
        17.498,
        17.548,
        17.599,
        17.65,
        17.701,
        17.753,
        17.804,
        17.856,
        17.908,
        17.96,
        18.013,
        18.066,
        18.119,
        18.172,
        18.226,
        18.279,
        18.333,
        18.387,
        18.442,
        18.496,
        18.551,
        18.607,
        18.662,
        18.718,
        18.774,
        18.83,
        18.886,
        18.943,
        19.0,
        19.057,
        19.114,
        19.172,
        19.23,
        19.288,
        19.347,
        19.405,
        19.464,
        19.524,
        19.583,
        19.643,
        19.703,
        19.764,
        19.824,
        19.885,
        19.946,
        20.008,
        20.07,
        20.132,
        20.194,
        20.257,
        20.32,
        20.383,
        20.446,
        20.51,
        20.574,
        20.639,
        20.704,
        20.769,
        20.834,
        20.9,
        20.966,
        21.032,
        21.099,
        21.165,
        21.233,
        21.3,
        21.368,
        21.436,
        21.505,
        21.574,
        21.643,
        21.712,
        21.782,
        21.852,
        21.923,
        21.994,
        22.065,
        22.137,
        22.209,
        22.281,
        22.353,
        22.426,
        22.5,
        22.573,
        22.647,
        22.722,
        22.797,
        22.872,
        22.947,
        23.023,
        23.1,
        23.176,
        23.253,
        23.331,
        23.409,
        23.487,
        23.565,
        23.644,
        23.724,
        23.804,
        23.884,
        23.964,
        24.045,
        24.127,
        24.209,
        24.291,
        24.374,
        24.457,
