{
  "id": "10326003XX",
  "reaction": {
    "x4code": "(94-PU-239(N,F),,SIG,,RAW)",
    "target": "94-PU-239",
    "process": "N,F",
    "sf4": null,
    "residual": null,
    "sf5": null,
    "sf6": "SIG",
    "sf7": null,
    "sf8": "RAW",
    "sf9": null,
    "freetext": []
  },
  "measurement_conditions": {
    "CORRECTION": {
      "XX": {
        "0": {
          "freetext": [
            "Final spectrum was not clean from the background.",
            "241Pu peak is present at 28 eV."
          ]
        }
      }
    },
    "DETECTOR": {
      "XX": {
        "0": {
          "x4code": "(SOLST)",
          "freetext": [
            " Stack of 10 thin Si solid-state detectors",
            " surrounded by 21 atmospheres of 3He."
          ]
        }
      }
    },
    "MONIT-REF": {
      "XX": {
        "(MONIT)": {
          "x4code": null,
          "freetext": [
            ""
          ]
        }
      }
    },
    "MONITOR": {
      "XX": {
        "0": {
          "x4code": [
            "(92-U-235(N,F),,SIG)"
          ],
          "freetext": [
            " Flux monitor."
          ]
        }
      }
    },
    "SAMPLE": {
      "XX": {
        "0": {
          "freetext": [
            "1.4x10-6 atoms/barn sample."
          ]
        }
      }
    }
  },
  "common_data": null,
  "data_table": {
    "heads": [
      "EN",
      "DATA"
    ],
    "units": [
      "EV",
      "B"
    ],
    "data": [
      [
        20.21,
        20.46,
        20.6,
        20.67,
        20.93,
        21.12,
        21.31,
        21.43,
        21.56,
        21.61,
        21.62,
        21.74,
        21.85,
        21.86,
        21.91,
        21.96,
        22.01,
        22.02,
        22.13,
        22.34,
        22.35,
        22.42,
        22.43,
        22.44,
        22.51,
        22.58,
        22.59,
        22.65,
        22.73,
        22.8,
        22.87,
        23.01,
        23.14,
        23.21,
        23.34,
        23.54,
        23.6,
        23.66,
        23.72,
        23.85,
        23.92,
        23.93,
        24.0,
        24.01,
        24.03,
        24.07,
        24.16,
        24.17,
        24.24,
        24.43,
        24.56,
        24.82,
        25.02,
        25.14,
        25.27,
        25.4,
        25.46,
        25.58,
        25.64,
        25.71,
        25.77,
        25.83,
        25.88,
        25.89,
        25.93,
        25.94,
        25.99,
        26.01,
        26.05,
        26.11,
        26.17,
        26.25,
        26.31,
        26.34,
        26.39,
        26.42,
        26.48,
        26.56,
        26.57,
        26.64,
        26.71,
        26.72,
        26.79,
        26.92,
        27.05,
        27.11,
        27.17,
        27.23,
        27.37,
        27.38,
        27.39,
        27.46,
        27.6,
        27.74,
        28.0,
        28.07,
        28.33,
        28.45,
        28.64,
        28.65,
        28.91,
        29.11,
        29.25,
        29.51,
        29.52,
        29.65,
        29.66,
        29.92,
        30.05,
        30.25,
        30.38,
        30.51,
        30.57,
        30.7,
        30.76,
        30.89,
        31.02,
        31.16,
        31.35,
        31.48,
        31.54,
        31.6,
        31.67,
        31.73,
        31.77,
        31.78,
        31.83,
        31.9,
        31.96,
        32.01,
        32.07,
        32.21,
        32.28,
        32.36,
        32.43,
        32.5,
        32.51,
        32.65,
        32.79,
        32.85,
        32.92,
        33.0,
        33.2,
        33.46,
        33.59,
        33.86,
        33.99,
        34.12,
        34.25,
        34.32,
        34.58,
        34.84,
        34.91,
        34.96,
        34.97,
        35.08,
        35.09,
        35.14,
        35.27,
        35.34,
        35.41,
        35.49,
        35.5,
        35.51,
        35.58,
        35.91,
        36.24,
        36.5,
        36.7,
        36.96,
        37.16,
        37.29,
        37.49,
        37.68,
        37.95,
        38.14,
        38.28,
        38.48,
        38.74,
        38.93,
        39.13,
        39.33,
        39.46,
        39.66,
        39.85,
        40.05,
        40.24,
        40.37,
        40.37,
        40.5,
        40.56,
        40.69,
        40.75,
        40.81,
        40.87,
        40.93,
        40.98,
        40.99,
        41.1,
        41.16,
        41.21,
        41.22,
        41.34,
        41.47,
        41.61,
        41.68,
        41.75,
        41.83,
        41.84,
        41.92,
        41.93,
        42.07,
        42.08,
        42.15,
        42.22,
        42.29,
        42.49,
        42.69,
        43.02,
        43.28,
        43.47,
        43.6,
        43.66,
        43.72,
        43.85,
        43.9,
        43.96,
        44.02,
        44.08,
        44.13,
        44.18,
        44.19,
        44.38,
        44.45,
        44.53,
        44.61,
        44.69,
        44.7,
        44.78,
        44.91,
        45.05,
        45.32,
        45.51,
        45.77,
        45.9,
        46.03,
        46.09,
        46.28,
        46.41,
        46.6,
        46.66,
        46.72,
        46.73,
        46.85,
        46.98,
        47.03,
        47.04,
        47.09,
        47.14,
        47.15,
        47.4,
        47.53,
        47.67,
        47.74,
        47.82,
        47.89,
        47.89,
        48.03,
        48.23,
        48.43,
        48.69,
        48.82,
        48.95,
        49.01,
        49.13,
        49.14,
        49.33,
        49.46,
        49.59,
        49.65,
        49.84,
        49.91,
        49.98,
        50.12,
        50.13,
        50.27,
        50.34,
        50.41,
        50.48,
        50.68,
        50.82,
        51.02,
        51.09,
        51.42,
        51.55,
        51.67,
        51.68,
        51.86,
        51.98,
        52.04,
        52.09,
        52.1,
        52.22,
        52.47,
        52.54,
        52.56,
        52.63,
        52.78,
        52.79,
        52.93,
        53.0,
        53.14,
        53.34,
        53.6,
        53.93,
        54.26,
        54.39,
        54.52,
        54.65,
        54.71,
        54.83,
        54.89,
        55.02,
        55.08,
        55.14,
        55.26,
        55.39,
        55.59,
        55.67,
        55.74,
        55.94,
        56.07,
        56.13,
        56.26,
        56.32,
        56.45,
        56.51,
        56.57,
        56.7,
        56.76,
        56.89,
        57.02,
        57.08,
        57.34,
        57.54,
        57.61,
        57.81,
        58.08,
        58.34,
        58.47,
        58.53,
        58.66,
        58.79,
        58.98,
        59.12,
        59.27,
        59.32,
        59.41,
        59.74,
        60.07,
        60.27,
        60.6,
        60.73,
        60.93,
        61.12,
        61.32,
        61.59,
        61.85,
        61.98,
        62.24,
        62.51,
        62.64,
        62.84,
        62.97,
        63.17,
        63.23,
        63.36,
        63.49,
        63.62,
        63.75,
        63.95,
        64.08,
        64.28,
        64.48,
        64.61,
        64.75,
        64.88,
        64.96,
        65.03,
        65.23,
        65.36,
        65.43,
        65.56,
        65.69,
        65.82,
        65.95,
        66.07,
        66.13,
        66.4,
        66.53,
        66.66,
        66.79,
        66.98,
        67.18,
        67.31,
        67.57,
        67.83,
        67.96,
        68.16,
        68.42,
        68.69,
        68.88,
        69.08,
        69.34,
        69.61,
        69.87,
        70.13,
        70.4,
        70.59,
        70.92,
        71.19,
        71.58,
        71.91,
        72.18,
        72.31,
        72.51,
        72.65,
        72.85,
        72.98,
        73.11,
        73.25,
        73.32,
        73.59,
        73.72,
        73.79,
        73.79,
        74.06,
        74.19,
        74.33,
        74.46,
        74.67,
        74.93,
        74.99,
        75.17,
        75.29,
        75.42,
        75.55,
        75.75,
        75.87,
        76.07,
        76.26,
        76.33,
        76.52,
        76.85,
        76.98,
        77.25,
        77.44,
        77.64,
        77.9,
        78.16,
        78.56,
        78.82,
        79.15,
        79.35,
        79.55,
        79.69,
        79.82,
        79.96,
        80.09,
        80.23,
        80.36,
        80.63,
        80.83,
        81.03,
        81.36,
        81.62,
        81.89,
        82.28,
        82.68,
        83.01,
        83.14,
        83.47,
        83.8,
        83.94,
        84.14,
        84.27,
        84.53,
        84.8,
        84.93,
        85.26,
        85.46,
        85.65,
        85.78,
        86.04,
        86.24,
        86.37,
        86.7,
        86.96,
        87.09,
        87.28,
        87.48,
        87.68,
        87.94,
        88.13,
        88.33,
        88.66,
        88.99,
        89.25,
        89.45,
        89.65,
        89.85,
        90.05,
        90.25,
        90.39,
        90.65,
        90.84,
        91.1,
        91.29,
        91.49,
        91.75,
        92.02,
        92.21,
        92.48,
        92.55,
        92.81,
        93.07,
        93.34,
        93.6,
        93.87,
        94.2,
        94.4,
        94.6,
        94.73,
        94.93,
        95.13,
        95.4,
        95.53,
        95.86,
        96.12,
        96.51,
        96.84,
        97.04,
        97.23,
        97.43,
        97.69,
        97.89,
        98.09,
        98.48,
        98.81,
        99.07,
        99.4,
        99.67,
        100.3,
        101.9,
        103.3,
        103.6,
        103.7,
        104.5,
        104.9,
        105.2,
        105.3,
        105.4,
        106.5,
        107.8,
        108.4,
        108.8,
        108.9,
        109.7,
        110.5,
        110.8,
        110.9,
        111.0,
        111.1,
        112.0,
        112.4,
        112.8,
        112.9,
        113.2,
        113.3,
        114.2,
        114.3,
        114.4,
        114.8,
        115.3,
        115.5,
        117.1,
        117.3,
        117.5,
        117.6,
        117.7,
        118.5,
        118.7,
        119.1,
        119.6,
        120.2,
        121.4,
        123.3,
        123.4,
        124.7,
        125.9,
        126.5,
        126.6,
        127.7,
        127.8,
        128.3,
        131.1,
        131.2,
        132.7,
        134.5,
        135.1,
        135.6,
        136.8,
        138.2,
        138.6,
        138.9,
        140.3,
        140.5,
        140.6,
        140.7,
        140.9,
        141.2,
        141.7,
        142.4,
        143.3,
        143.4,
        144.2,
        144.8,
        145.3,
        145.5,
        146.0,
        148.7,
        148.8,
        151.0,
        151.7,
        152.1,
        152.4,
        153.1,
        153.6,
        154.1,
        154.4,
        154.8,
        155.1,
        155.3,
        155.4,
        156.4,
        157.4,
        158.0,
        158.4,
        160.3,
        160.9,
        161.0,
        161.7,
        162.5,
        163.1,
        163.6,
        163.8,
        164.8,
        165.1,
        166.7,
        167.4,
        168.1,
        168.2,
        170.4,
        171.2,
        172.5,
        173.3,
        173.4,
        174.6,
        174.7,
        175.8,
        177.0,
        178.9,
        180.6,
        181.3,
        182.5,
        183.0,
        183.2,
        184.5,
        186.3,
        186.9,
        188.1,
        189.6,
        189.8,
        190.6,
        191.2,
        191.5,
        192.0,
        192.4,
        192.5,
        192.7,
        196.1,
        196.2,
        196.4,
        198.7,
        198.8,
        200.7,
        201.7,
        202.7,
        203.6,
        204.1,
        204.9,
        206.4,
        206.9,
        207.8,
        210.9,
        212.0,
        214.6,
        216.4,
        216.7,
        217.5,
        217.7,
        220.7,
        222.8,
        222.9,
        223.8,
        226.1,
        228.8,
        232.6,
        235.4,
        236.9,
        239.1,
        240.5,
        241.6,
        244.9,
        245.1,
        245.8,
        246.1,
        246.9,
        251.2,
        252.2,
        252.8,
        253.5,
        254.7,
        257.4,
        260.3,
        265.0,
        266.3,
        267.6,
        270.3,
        273.1,
        276.9,
        277.1,
        277.2,
        279.0,
        280.4,
        285.6,
        287.0,
        290.1,
        291.9,
        292.0,
        292.2,
        297.6,
        297.8,
        298.4,
        299.8,
        302.5,
        303.7,
        304.3,
        306.2,
        306.6,
        307.2,
        308.5,
        309.1,
        313.6,
        315.7,
        315.9,
        318.9,
        320.0,
        320.2,
        322.3,
        328.3,
        328.6,
        335.1,
        335.2,
        335.5,
        338.3,
        339.4,
        342.9,
        343.3,
        344.4,
        344.6,
        348.0,
        350.4,
        353.0,
        355.0,
        357.2,
        358.7,
        360.4,
        368.3,
        370.2,
        370.7,
        375.1,
        380.5,
        381.1,
        387.7,
        388.1,
        391.7,
        393.6,
        395.5,
        400.9,
        401.2,
        404.1,
        407.3,
        407.8,
        411.9,
        416.2,
        416.7,
        418.8,
        422.8,
        423.9,
        425.7,
        427.6,
        428.9,
        438.4,
        439.5,
        442.5,
        442.9,
        445.2,
        447.2,
        450.8,
        451.4,
        452.6,
        454.9,
        455.5,
        457.8,
        462.1,
        464.4,
        472.6,
        478.7,
        480.1,
        481.0,
        487.5,
        490.6,
        493.9,
        498.0,
        498.6,
        501.1,
        505.3,
        508.4,
        509.3,
        514.4,
        522.5,
        525.7,
        529.2,
        530.7,
        531.0,
        538.3,
        538.6,
        539.0,
        544.0,
        549.4,
        556.9,
        559.5,
        561.4,
        566.0,
        569.6,
        571.7,
        573.0,
        576.7,
        582.0,
        582.3,
        584.7,
        593.8,
        597.4,
        597.9,
        604.3,
        611.7,
        619.7,
        620.5,
        620.7,
        626.1,
        631.9,
        634.1,
        646.9,
        648.8,
        649.6,
        654.7,
        657.4,
        664.1,
        667.4,
        677.6,
        681.0,
        682.0,
        686.5,
        691.5,
        695.0,
        695.8,
        709.9,
        718.7,
        722.1,
        724.4,
        731.1,
        740.0,
        740.3,
        750.6,
        751.1,
        756.6,
        761.5,
        762.8,
        764.3,
        777.5,
        789.9,
        796.2,
        802.8,
        805.7,
        814.1,
        822.3,
        839.5,
        850.3,
        855.7,
        856.2,
        866.2,
        876.5,
        885.2,
        888.2,
        889.3,
        907.7,
        913.5,
        928.0,
        934.3,
        945.3,
        949.2,
        953.8,
        957.7,
        978.7,
        979.9,
        992.6,
        993.9,
        997.0,
        1009.0,
        1011.0,
        1031.0,
        1038.0,
        1050.0,
        1052.0,
        1057.0,
        1072.0,
        1084.0,
        1097.0,
        1103.0,
        1114.0,
        1130.0,
        1135.0,
        1148.0,
        1159.0,
        1166.0,
        1186.0,
        1207.0,
        1213.0,
        1218.0,
        1233.0,
        1246.0,
        1273.0,
        1288.0,
        1308.0,
        1314.0,
        1323.0,
        1348.0,
        1353.0,
        1374.0,
        1376.0,
        1393.0,
        1422.0,
        1447.0,
        1455.0,
        1481.0,
        1517.0,
        1541.0,
        1557.0,
        1570.0,
        1581.0,
        1609.0,
        1617.0,
        1655.0,
        1711.0,
        1746.0,
        1763.0,
        1794.0,
        1825.0,
        1849.0,
        1870.0,
        1912.0,
        1923.0,
        1946.0,
        1967.0,
        1977.0,
        2000.0,
        2023.0,
        2045.0,
        2055.0,
        2087.0,
        2097.0,
        2147.0,
        2217.0,
        2241.0,
        2251.0,
        2306.0,
        2329.0,
        2353.0,
        2406.0,
        2446.0,
        2464.0,
        2507.0,
        2519.0,
        2575.0,
        2617.0,
        2645.0,
        2716.0,
        2747.0,
        2792.0,
        2810.0,
        2859.0,
        2874.0,
        2908.0,
        2988.0,
        3003.0,
        3100.0,
        3158.0,
        3210.0,
        3249.0,
        3269.0,
        3313.0,
        3377.0,
        3427.0,
        3508.0,
        3539.0,
        3589.0,
        3640.0,
        3726.0,
        3800.0,
        3857.0,
        3918.0,
        3938.0,
        4032.0,
        4046.0,
        4067.0,
        4187.0,
        4284.0,
        4387.0,
        4453.0,
        4584.0,
        4718.0,
        4882.0,
        4972.0,
        5089.0,
        5186.0,
        5270.0,
        5370.0,
        5469.0,
        5576.0,
        5740.0,
        5877.0,
        6048.0,
        6196.0,
        6258.0,
        6383.0,
        6503.0,
        6595.0,
        6726.0,
        6892.0,
        7020.0,
        7119.0,
        7284.0,
        7496.0,
        7574.0,
        7763.0,
        7907.0,
        8058.0,
        8252.0,
        8374.0,
        8619.0,
        8826.0,
        8960.0,
        9180.0,
        9489.0,
        9570.0,
        10170.0,
        10460.0,
        10630.0,
        10990.0,
        11300.0,
        11550.0,
        11680.0,
        12140.0,
        12270.0,
        12690.0,
        13040.0,
        13410.0,
        13860.0,
        14180.0,
        14570.0,
        14970.0,
        15480.0,
        15830.0,
        16360.0,
        16730.0,
        17290.0,
        17870.0,
        18480.0,
        18990.0,
        19520.0,
        20180.0,
        20860.0,
        21560.0,
        22170.0,
        23170.0,
        23810.0,
        24750.0,
        25590.0,
        26890.0,
        27650.0,
        28580.0,
        29540.0,
        30880.0,
        32270.0,
        33730.0,
        35060.0,
        36640.0,
        38090.0,
        39590.0,
        41840.0,
        43490.0,
        45700.0,
        47770.0,
        50770.0,
        53370.0,
        56390.0,
        59250.0,
        62970.0,
        66550.0,
        70310.0,
        75140.0,
        79860.0,
        86270.0,
        91700.0,
        97960.0,
        104100.0,
        112500.0,
        120800.0,
        131300.0,
        142600.0,
        155800.0,
        170200.0,
        188000.0,
        207600.0,
        230600.0,
        260300.0,
        290700.0,
        328300.0,
        376900.0,
        435000.0,
        507700.0,
        605800.0,
        738900.0
      ],
      [
        1.79,
        2.966,
        2.178,
        1.662,
        2.183,
        3.096,
        4.225,
        5.991,
        8.172,
        16.41,
        11.14,
        21.53,
        74.34,
        41.6,
        97.51,
        161.3,
        458.8,
        203.6,
        702.9,
        496.9,
        220.5,
        161.8,
        101.7,
        80.64,
        61.54,
        46.96,
        29.51,
        35.83,
        24.34,
        15.91,
        12.62,
        10.41,
        8.26,
        7.079,
        6.309,
        7.666,
        11.74,
        14.81,
        17.98,
        22.7,
        16.03,
        12.23,
        8.977,
        3.983,
        2.144,
        6.099,
        1.575,
        1.201,
        0.9166,
        1.158,
        1.579,
        1.409,
        1.849,
        2.427,
        3.185,
        4.02,
        5.274,
        6.658,
        8.733,
        11.45,
        14.46,
        18.24,
        31.37,
