{
  "id": "10267-017-XX",
  "reaction": {
    "x4code": "(94-PU-239(N,F),,SIG)",
    "target": "94-PU-239",
    "process": "N,F",
    "sf4": null,
    "residual": null,
    "sf5": null,
    "sf6": "SIG",
    "sf7": null,
    "sf8": null,
    "sf9": null,
    "freetext": []
  },
  "measurement_conditions": {
    "CORRECTION": {
      "XX": {
        "0": {
          "freetext": [
            "Not corrected for tungsten or 240Pu impurities"
          ]
        }
      }
    },
    "ERR-ANALYS": {
      "XX": {
        "0": {
          "x4code": "(DATA-ERR)",
          "freetext": [
            " No information on the source of uncertainty"
          ]
        },
        "1": {
          "x4code": "(ERR-2)",
          "freetext": [
            " Uncertainty due to normalization (0.5%)"
          ]
        }
      }
    }
  },
  "common_data": {
    "heads": [
      "ERR-2"
    ],
    "units": [
      "PER-CENT"
    ],
    "data": {
      "0": [
        0.5
      ]
    }
  },
  "data_table": {
    "heads": [
      "EN",
      "DATA",
      "DATA-ERR"
    ],
    "units": [
      "EV",
      "B",
      "B"
    ],
    "data": {
      "0": [
        0.7022,
        0.7106,
        0.7192,
        0.728,
        0.7369,
        0.746,
        0.7553,
        0.7648,
        0.7744,
        0.7842,
        0.7942,
        0.8044,
        0.8147,
        0.8253,
        0.8361,
        0.8471,
        0.8583,
        0.8698,
        0.8815,
        0.8934,
        0.9055,
        0.9179,
        0.9306,
        0.9435,
        0.9567,
        0.9702,
        0.984,
        0.998,
        1.0124,
        1.0271,
        1.0421,
        1.0574,
        1.0731,
        1.0891,
        1.1055,
        1.1222,
        1.1394,
        1.1569,
        1.1748,
        1.1932,
        1.212,
        1.2312,
        1.2509,
        1.2711,
        1.2918,
        1.313,
        1.3347,
        1.3569,
        1.3797,
        1.4031,
        1.4271,
        1.4517,
        1.477,
        1.5029,
        1.5295,
        1.5568,
        1.5849,
        1.6137,
        1.6433,
        1.6738,
        1.7051,
        1.7372,
        1.7703,
        1.8044,
        1.8394,
        1.8755,
        1.9127,
        1.9509,
        1.9903,
        2.031,
        2.0729,
        2.1161,
        2.1606,
        2.2066,
        2.2541,
        2.3031,
        2.3537,
        2.406,
        2.4601,
        2.5161,
        2.5739,
        2.6338,
        2.6958,
        2.76,
        2.8265,
        2.8955,
        2.967,
        3.0412,
        3.1182,
        3.1982,
        3.2813,
        3.3677,
        3.4575,
        3.551,
        3.6483,
        3.7497,
        3.8553,
        3.9133,
        3.9202,
        3.9271,
        3.9341,
        3.941,
        3.948,
        3.955,
        3.962,
        3.9691,
        3.9761,
        3.9832,
        3.9903,
        3.9974,
        4.0045,
        4.0117,
        4.0188,
        4.026,
        4.0332,
        4.0404,
        4.0477,
        4.055,
        4.0622,
        4.0695,
        4.0769,
        4.0842,
        4.0916,
        4.0989,
        4.1063,
        4.1138,
        4.1212,
        4.1287,
        4.1362,
        4.1437,
        4.1512,
        4.1587,
        4.1663,
        4.1739,
        4.1815,
        4.1891,
        4.1968,
        4.2044,
        4.2121,
        4.2198,
        4.2276,
        4.2353,
        4.2431,
        4.2509,
        4.2587,
        4.2665,
        4.2744,
        4.2823,
        4.2902,
        4.2981,
        4.3061,
        4.314,
        4.322,
        4.33,
        4.3381,
        4.3461,
        4.3542,
        4.3623,
        4.3704,
        4.3786,
        4.3868,
        4.395,
        4.4032,
        4.4114,
        4.4197,
        4.428,
        4.4363,
        4.4446,
        4.453,
        4.4614,
        4.4698,
        4.4782,
        4.4867,
        4.4951,
        4.5036,
        4.5122,
        4.5207,
        4.5293,
        4.5379,
        4.5465,
        4.5552,
        4.5638,
        4.5725,
        4.5812,
        4.59,
        4.5988,
        4.6076,
        4.6164,
        4.6252,
        4.6341,
        4.643,
        4.6519,
        4.6609,
        4.6698,
        4.6789,
        4.6879,
        4.6969,
        4.706,
        4.7151,
        4.7243,
        4.7334,
        4.7426,
        4.7518,
        4.7611,
        4.7703,
        4.7796,
        4.7889,
        4.7983,
        4.8077,
        4.8171,
        4.8265,
        4.836,
        4.8454,
        4.855,
        4.8645,
        4.8741,
        4.8837,
        4.8933,
        4.903,
        4.9126,
        4.9223,
        4.9321,
        4.9419,
        4.9517,
        4.9615,
        4.9714,
        4.9812,
        4.9912,
        5.0011,
        5.0111,
        5.0211,
        5.0311,
        5.0412,
        5.0513,
        5.0614,
        5.0716,
        5.0818,
        5.092,
        5.1022,
        5.1125,
        5.1228,
        5.1332,
        5.1435,
        5.154,
        5.1644,
        5.1749,
        5.1854,
        5.1959,
        5.2065,
        5.2171,
        5.2277,
        5.2384,
        5.249,
        5.2598,
        5.2705,
        5.2813,
        5.2922,
        5.303,
        5.3139,
        5.3248,
        5.3358,
        5.3468,
        5.3578,
        5.3689,
        5.38,
        5.3911,
        5.4023,
        5.4135,
        5.4247,
        5.436,
        5.4473,
        5.4587,
        5.47,
        5.4814,
        5.4929,
        5.5044,
        5.5159,
        5.5275,
        5.5391,
        5.5507,
        5.5623,
        5.5741,
        5.5858,
        5.5976,
        5.6094,
        5.6212,
        5.6331,
        5.6451,
        5.657,
        5.669,
        5.6811,
        5.6932,
        5.7053,
        5.7174,
        5.7296,
        5.7419,
        5.7541,
        5.7665,
        5.7788,
        5.7912,
        5.8036,
        5.8161,
        5.8286,
        5.8412,
        5.8538,
        5.8664,
        5.8791,
        5.8918,
        5.9046,
        5.9174,
        5.9302,
        5.9431,
        5.956,
        5.969,
        5.982,
        5.995,
        6.0081,
        6.0213,
        6.0345,
        6.0477,
        6.061,
        6.0743,
        6.0876,
        6.101,
        6.1145,
        6.128,
        6.1415,
        6.1551,
        6.1687,
        6.1824,
        6.1961,
        6.2099,
        6.2237,
        6.2375,
        6.2514,
        6.2654,
        6.2794,
        6.2934,
        6.3075,
        6.3216,
        6.3358,
        6.35,
        6.3643,
        6.3786,
        6.393,
        6.4074,
        6.4219,
        6.4364,
        6.451,
        6.4656,
        6.4803,
        6.495,
        6.5098,
        6.5246,
        6.5395,
        6.5544,
        6.5693,
        6.5844,
        6.5994,
        6.6146,
        6.6298,
        6.645,
        6.6603,
        6.6756,
        6.691,
        6.7064,
        6.7219,
        6.7375,
        6.7531,
        6.7687,
        6.7845,
        6.8002,
        6.8161,
        6.8319,
        6.8479,
        6.8639,
        6.8799,
        6.896,
        6.9122,
        6.9284,
        6.9447,
        6.961,
        6.9774,
        6.9938,
        7.0103,
        7.0269,
        7.0435,
        7.0602,
        7.0769,
        7.0937,
        7.1106,
        7.1275,
        7.1445,
        7.1615,
        7.1786,
        7.1958,
        7.213,
        7.2303,
        7.2476,
        7.2651,
        7.2825,
        7.3001,
        7.3177,
        7.3353,
        7.3531,
        7.3709,
        7.3887,
        7.4066,
        7.4246,
        7.4427,
        7.4608,
        7.479,
        7.4972,
        7.5156,
        7.5339,
        7.5524,
        7.5709,
        7.5895,
        7.6082,
        7.6269,
        7.6457,
        7.6646,
        7.6835,
        7.7025,
        7.7216,
        7.7407,
        7.7599,
        7.7792,
        7.7986,
        7.818,
        7.8375,
        7.8571,
        7.8768,
        7.8965,
        7.9163,
        7.9362,
        7.9561,
        7.9762,
        7.9963,
        8.0164,
        8.0367,
        8.057,
        8.0774,
        8.0979,
        8.1185,
        8.1391,
        8.1599,
        8.1807,
        8.2015,
        8.2225,
        8.2435,
        8.2647,
        8.2859,
        8.3072,
        8.3285,
        8.35,
        8.3715,
        8.3931,
        8.4148,
        8.4366,
        8.4585,
        8.4804,
        8.5025,
        8.5246,
        8.5468,
        8.5691,
        8.5915,
        8.614,
        8.6365,
        8.6592,
        8.6819,
        8.7048,
        8.7277,
        8.7507,
        8.7738,
        8.797,
        8.8203,
        8.8437,
        8.8671,
        8.8907,
        8.9144,
        8.9381,
        8.962,
        8.9859,
        9.01,
        9.0341,
        9.0583,
        9.0827,
        9.1071,
        9.1316,
        9.1563,
        9.181,
        9.2058,
        9.2308,
        9.2558,
        9.2809,
        9.3062,
        9.3315,
        9.3569,
        9.3825,
        9.4081,
        9.4339,
        9.4598,
        9.4857,
        9.5118,
        9.538,
        9.5643,
        9.5907,
        9.6172,
        9.6438,
        9.6705,
        9.6974,
        9.7243,
        9.7514,
        9.7786,
        9.8059,
        9.8333,
        9.8608,
        9.8885,
        9.9162,
        9.9441,
        9.9721,
        10.0002,
        10.0284,
        10.0568,
        10.0852,
        10.1138,
        10.1425,
        10.1714,
        10.2003,
        10.2294,
        10.2586,
        10.2879,
        10.3174,
        10.347,
        10.3767,
        10.4065,
        10.4365,
        10.4666,
        10.4968,
        10.5272,
        10.5577,
        10.5883,
        10.619,
        10.6499,
        10.681,
        10.7121,
        10.7434,
        10.7749,
        10.8064,
        10.8381,
        10.87,
        10.902,
        10.9341,
        10.9664,
        10.9988,
        11.0314,
        11.0641,
        11.0969,
        11.1299,
        11.1631,
        11.1964,
        11.2298,
        11.2634,
        11.2972,
        11.3311,
        11.3651,
        11.3993,
        11.4337,
        11.4682,
        11.5029,
        11.5377,
        11.5727,
        11.6079,
        11.6432,
        11.6786,
        11.7143,
        11.7501,
        11.786,
        11.8221,
        11.8584,
        11.8949,
        11.9315,
        11.9683,
        12.0053,
        12.0424,
        12.0797,
        12.1172,
        12.1549,
        12.1927,
        12.2307,
        12.2689,
        12.3073,
        12.3458,
        12.3846,
        12.4235,
        12.4626,
        12.5018,
        12.5413,
        12.581,
        12.6208,
        12.6608,
        12.7011,
        12.7415,
        12.7821,
        12.8229,
        12.8639,
        12.9051,
        12.9465,
        12.9881,
        13.0299,
        13.0719,
        13.1141,
        13.1565,
        13.1991,
        13.2419,
        13.2849,
        13.3282,
        13.3716,
        13.4153,
        13.4591,
        13.5032,
        13.5475,
        13.5921,
        13.6368,
        13.6818,
        13.727,
        13.7724,
        13.818,
        13.8639,
        13.91,
        13.9563,
        14.0029,
        14.0497,
        14.0967,
        14.144,
        14.1915,
        14.2392,
        14.2872,
        14.3354,
        14.3839,
        14.4326,
        14.4816,
        14.5308,
        14.5802,
        14.6299,
        14.6799,
        14.7301,
        14.7806,
        14.8314,
        14.8824,
        14.9337,
        14.9852,
        15.037,
        15.0891,
        15.1414,
        15.194,
        15.2469,
        15.3001,
        15.3536,
        15.4073,
        15.4613,
        15.5156,
        15.5702,
        15.625,
        15.6802,
        15.7357,
        15.7914,
        15.8474,
        15.9038,
        15.9604,
        16.0174,
        16.0746,
        16.1322,
        16.1901,
        16.2483,
        16.3067,
        16.3656,
        16.4247,
        16.4841,
        16.5439,
        16.604,
        16.6645,
        16.7252,
        16.7863,
        16.8477,
        16.9095,
        16.9716,
        17.0341,
        17.0969,
        17.16,
        17.2235,
        17.2873,
        17.3516,
        17.4161,
        17.481,
        17.5463,
        17.612,
        17.678,
        17.7444,
        17.8112,
        17.8783,
        17.9458,
        18.0137,
        18.082,
        18.1507,
        18.2198,
        18.2893,
        18.3591,
        18.4294,
        18.5001,
        18.5712,
        18.6427,
        18.7146,
        18.7869,
        18.8596,
        18.9328,
        19.0064,
        19.0804,
        19.1549,
        19.2298,
        19.3051,
        19.3809,
        19.4571,
        19.5338,
        19.6109,
        19.6885,
        19.7665,
        19.845,
        19.924,
        20.0035,
        20.0834,
        20.1638,
        20.2447,
        20.3261,
        20.408,
        20.4903,
        20.5732,
        20.6566,
        20.7405,
        20.8249,
        20.9098,
        20.9952,
        21.0811,
        21.1676,
        21.2546,
        21.3422,
        21.4303,
        21.5189,
        21.6081,
        21.6979,
        21.7882,
        21.8791,
        21.9705,
        22.0625,
        22.1551,
        22.2483,
        22.3421,
        22.4364,
        22.5314,
        22.627,
        22.7232,
        22.8199,
        22.9174,
        23.0154,
        23.1141,
        23.2134,
        23.3133,
        23.4139,
        23.5151,
        23.617,
        23.7196,
        23.8228,
        23.9268,
        24.0314,
        24.1366,
        24.2426,
        24.3493,
        24.4567,
        24.5647,
        24.6736,
        24.7831,
        24.8933,
        25.0043,
        25.1161,
        25.2286,
        25.3418,
        25.4559,
        25.5707,
        25.6862,
        25.8026,
        25.9197,
        26.0377,
        26.1564,
        26.276,
        26.3964,
        26.5176,
        26.6396,
        26.7625,
        26.8863,
        27.0109,
        27.1364,
        27.2627,
        27.39,
        27.5181,
        27.6471,
        27.7771,
        27.9079,
        28.0397,
        28.1725,
        28.3061,
        28.4407,
        28.5763,
        28.7129,
        28.8504,
        28.989,
        29.1285,
        29.269,
        29.4106,
        29.5532,
        29.6968,
        29.8415,
        29.9872,
        30.134,
        30.2819,
        30.4309,
        30.581,
        30.7322,
        30.8845,
        31.0379,
        31.1925,
        31.3483,
        31.5052,
        31.6633,
        31.8226,
        31.9832,
        32.1449,
        32.3078,
        32.472,
        32.6375,
        32.8042,
        32.9722,
        33.1415,
        33.3121,
        33.484,
        33.6573,
        33.8319,
        33.9637,
        34.0521,
        34.1407,
        34.2298,
        34.3191,
        34.4088,
        34.4989,
        34.5893,
        34.6801,
        34.7712,
        34.8627,
        34.9546,
        35.0468,
        35.1394,
        35.2324,
        35.3257,
        35.4194,
        35.5135,
        35.6079,
        35.7027,
        35.7979,
        35.8935,
        35.9895,
        36.0858,
        36.1826,
        36.2797,
        36.3772,
        36.4751,
        36.5734,
        36.6721,
        36.7713,
        36.8708,
        36.9707,
        37.071,
        37.1717,
        37.2729,
        37.3744,
        37.4764,
        37.5788,
        37.6816,
        37.7848,
        37.8885,
        37.9926,
        38.0971,
        38.202,
        38.3074,
        38.4132,
        38.5195,
        38.6262,
        38.7333,
        38.8409,
        38.9489,
        39.0574,
        39.1663,
        39.2757,
        39.3856,
        39.4959,
        39.6067,
        39.7179,
        39.8297,
        39.9418,
        40.0545,
        40.1676,
        40.2813,
        40.3954,
        40.51,
        40.625,
        40.7406,
        40.8567,
        40.9732,
        41.0903,
        41.2078,
        41.3259,
        41.4445,
        41.5636,
        41.6832,
        41.8033,
        41.9239,
        42.0451,
        42.1668,
        42.289,
        42.4117,
        42.535,
        42.6588,
        42.7832,
        42.9081,
        43.0336,
        43.1596,
        43.2861,
        43.4132,
        43.5409,
        43.6692,
        43.798,
        43.9273,
        44.0573,
        44.1878,
        44.3189,
        44.4506,
        44.5829,
        44.7158,
        44.8493,
        44.9833,
        45.118,
        45.2533,
        45.3892,
        45.5257,
        45.6628,
        45.8005,
        45.9389,
        46.0779,
        46.2175,
        46.3577,
        46.4986,
        46.6402,
        46.7824,
        46.9252,
        47.0687,
        47.2128,
        47.3577,
        47.5031,
        47.6493,
        47.7961,
        47.9436,
        48.0918,
        48.2407,
        48.3903,
        48.5405,
        48.6915,
        48.8432,
        48.9956,
        49.1487,
        49.3025,
        49.457,
        49.6123,
        49.7683,
        49.925,
        50.0825,
        50.2407,
        50.3997,
        50.5595,
        50.72,
        50.8812,
        51.0432,
        51.206,
        51.3696,
        51.534,
        51.6992,
        51.8651,
        52.0319,
        52.1994,
        52.3678,
        52.537,
        52.707,
        52.8778,
        53.0495,
        53.222,
        53.3954,
        53.5696,
        53.7446,
        53.9205,
        54.0973,
        54.2749,
        54.4535,
        54.6329,
        54.8132,
        54.9943,
        55.1764,
        55.3594,
        55.5433,
        55.7282,
        55.9139,
        56.1006,
        56.2882,
        56.4767,
        56.6662,
        56.8567,
        57.0481,
        57.2405,
        57.4339,
        57.6282,
        57.8236,
        58.0199,
        58.2172,
        58.4156,
        58.6149,
        58.8153,
        59.0167,
        59.2191,
        59.4226,
        59.6272,
        59.8328,
        60.0394,
        60.2471,
        60.456,
        60.6659,
        60.8769,
        61.0889,
        61.3022,
        61.5165,
        61.7319,
        61.9485,
        62.1662,
        62.3851,
        62.6052,
        62.8264,
        63.0487,
        63.2723,
        63.497,
        63.723,
        63.9501,
        64.1785,
        64.4081,
        64.639,
        64.871,
        65.1044,
        65.339,
        65.5748,
        65.812,
        66.0504,
        66.2901,
        66.5311,
        66.7735,
        67.0172,
        67.2622,
        67.5085,
        67.7563,
        68.0053,
        68.2558,
        68.5076,
        68.7609,
        69.0155,
        69.2716,
        69.5291,
        69.788,
        70.0484,
        70.3102,
        70.5736,
        70.8383,
        71.1046,
        71.3724,
        71.6417,
        71.9126,
        72.1849,
        72.4589,
        72.7343,
        73.0114,
        73.29,
        73.5703,
        73.8521,
        74.1356,
        74.4207,
        74.7075,
        74.9959,
        75.286,
        75.5778,
        75.8713,
        76.1664,
        76.4634,
        76.762,
        77.0624,
        77.3646,
        77.6686,
        77.9743,
        78.2819,
        78.5913,
        78.9025,
        79.2156,
        79.5305,
        79.8473,
        80.1661,
        80.4867,
        80.8093,
        81.1338,
        81.4602,
        81.7887,
        82.1191,
        82.4515,
        82.786,
        83.1225,
        83.461,
        83.8016,
        84.1444,
        84.4892,
        84.8361,
        85.1852,
        85.5365,
        85.8899,
        86.2455,
        86.6033,
        86.9634,
        87.3257,
        87.6903,
        88.0571,
        88.4263,
        88.7978,
        89.1717,
        89.5479,
        89.9265,
        90.3075,
        90.6909,
